GITM2 log file
## Inputs from UAM.in
# Resart= F
# Eddy coef:    50.000 Eddy P0:     0.010 Eddy P1:     0.005
# Statistical Models Only:  F Apex:  F
# EUV Data:  TFile: 
UA/DataIn/FISM/fismflux_daily_2002.dat                                                                                                                                                                                                                                                                                                                                                                                                                                                                                                                                                                                  
# E-Field Model: weimer05 Auroral Model: FTA
# AMIE: none           
none                                                                                                                                                                                                                                                                                                                                                                                                                                                                                                                                                                                                                    
# Solar Heating:  T Joule Heating:  T
# NO Cooling:  T O Cooling:  T
# Conduction:  T Turbulent Conduction:  T
# Pressure Grad:  T Ion Drag:  T Neutral Drag:  T
# Viscosity:  T Coriolis:  T Gravity:  T
# Ion Chemistry:  T Ion Advection:  T Neutral Chemistry:  T
 
#START
   iStep yyyy mm dd hh mm ss  ms      dt min(T) max(T) mean(T) min(VV) max(VV) mean(VV) F107 F107A By Bz Vx HP HPn HPs HPn_diff HPs_diff HPn_w HPs_w HPn_m HPs_m SubsolarLon SubsolarLat SubsolarVTEC
       2 2002 12 21  0  0  4 105  4.1058    157.67607   1317.06366   1012.07593     -4.34841      5.73680      0.15716    177.9    149.5      6.1     -6.0    531.2     71.9    146.3    146.3 146.25404 146.25404   0.00000   0.00000   0.00000   0.00000   3.14129  -0.40992  58.75926
       3 2002 12 21  0  0  8  37  3.9320    157.71173   1316.99398   1012.26039     -5.92277      4.86210     -0.13276    177.9    149.5      6.2     -6.0    531.0     72.0    146.3    146.3 146.25404 146.25404   0.00000   0.00000   0.00000   0.00000   3.14101  -0.40992  60.82282
       4 2002 12 21  0  0 11 887  3.8494    157.76841   1316.93712   1012.45537     -6.62034      4.56263     -0.30770    177.9    149.5      6.2     -6.0    530.7     72.0    146.3    146.3 146.25404 146.25404   0.00000   0.00000   0.00000   0.00000   3.14073  -0.40992  60.34757
       5 2002 12 21  0  0 15 774  3.8877    157.80222   1316.87878   1012.66111     -6.99680      4.53841     -0.43853    177.9    149.5      6.2     -6.0    530.5     72.0    146.3    146.3 146.25404 146.25404   0.00000   0.00000   0.00000   0.00000   3.14045  -0.40992  60.67072
       6 2002 12 21  0  0 19 611  3.8370    157.81721   1316.83846   1012.87013     -7.24073      4.41361     -0.56004    177.9    149.5      6.3     -6.0    530.2     72.1    146.3    146.3 146.25404 146.25404   0.00000   0.00000   0.00000   0.00000   3.14017  -0.40992  60.61687
       7 2002 12 21  0  0 23 439  3.8280    157.84196   1316.81027   1013.08369     -7.44079      4.35788     -0.66764    177.9    149.5      6.3     -6.0    530.0     72.1    146.3    146.3 146.25404 146.25404   0.00000   0.00000   0.00000   0.00000   3.13989  -0.40992  60.67116
       8 2002 12 21  0  0 27 263  3.8239    157.88379   1316.79774   1013.30096     -7.62241      4.31518     -0.76610    177.9    149.5      6.3     -6.0    529.8     72.2    146.3    146.3 146.25404 146.25404   0.00000   0.00000   0.00000   0.00000   3.13961  -0.40992  60.64320
       9 2002 12 21  0  0 31  87  3.8236    157.93011   1316.80110   1013.52134     -7.79583      4.28435     -0.85860    177.9    149.5      6.4     -6.0    529.5     72.2    146.3    146.3 146.25404 146.25404   0.00000   0.00000   0.00000   0.00000   3.13933  -0.40992  60.64529
      10 2002 12 21  0  0 34 910  3.8237    157.97535   1316.82004   1013.74425     -7.96148      4.25902     -0.94758    177.9    149.5      6.4     -6.0    529.3     72.3    146.3    146.3 146.25404 146.25404   0.00000   0.00000   0.00000   0.00000   3.13905  -0.40992  60.60958
      11 2002 12 21  0  0 38 734  3.8239    158.01350   1316.85354   1013.96915     -8.12052      4.33967     -1.03240    177.9    149.5      6.4     -6.0    529.0     72.3    146.3    146.3 146.25404 146.25404   0.00000   0.00000   0.00000   0.00000   3.13878  -0.40992  60.59607
      12 2002 12 21  0  0 42 558  3.8235    158.04440   1316.90045   1014.19558     -8.27216      4.63101     -1.11316    177.9    149.5      6.5     -6.0    528.8     72.4    146.3    146.3 146.25404 146.25404   0.00000   0.00000   0.00000   0.00000   3.13850  -0.40992  60.55418
      13 2002 12 21  0  0 46 381  3.8227    158.07721   1316.95953   1014.42311     -8.41630      4.94711     -1.18855    177.9    149.5      6.5     -6.0    528.5     72.4    146.3    146.3 146.25404 146.25404   0.00000   0.00000   0.00000   0.00000   3.13822  -0.40992  60.53431
      14 2002 12 21  0  0 50 202  3.8211    158.11803   1317.02919   1014.65134     -8.55091      5.34981     -1.25913    177.9    149.5      6.5     -6.0    528.3     72.5    146.3    146.3 146.25404 146.25404   0.00000   0.00000   0.00000   0.00000   3.13794  -0.40992  60.48874
      15 2002 12 21  0  0 54  21  3.8189    158.16050   1317.17821   1014.87988     -8.67674      5.66695     -1.32618    177.9    149.5      6.6     -6.0    528.0     72.5    146.3    146.3 146.25404 146.25404   0.00000   0.00000   0.00000   0.00000   3.13766  -0.40992  60.46592
      16 2002 12 21  0  0 57 837  3.8162    158.19907   1317.87664   1015.10844     -8.79353      5.98528     -1.38980    177.9    149.5      6.6     -6.0    527.8     72.5    146.3    146.3 146.25404 146.25404   0.00000   0.00000   0.00000   0.00000   3.13739  -0.40992  60.41870
      17 2002 12 21  0  1  1 650  3.8133    158.22698   1318.55630   1015.33675     -8.90128      6.33393     -1.44972    177.9    149.5      6.6     -6.0    527.7     72.6    146.3    146.3 146.25404 146.25404   0.00000   0.00000   0.00000   0.00000   3.13711  -0.40992  60.39452
      18 2002 12 21  0  1  5 461  3.8105    158.24751   1319.22042   1015.56477     -8.99966      6.62456     -1.50495    177.9    149.5      6.6     -6.0    527.8     72.5    149.2    149.2 149.18887 149.18887   0.00000   0.00000   0.00000   0.00000   3.13683  -0.40992  60.34632
      19 2002 12 21  0  1  9 265  3.8040    158.27103   1319.86744   1015.79196     -9.14658      7.12750     -1.55526    177.9    149.5      6.6     -6.0    527.9     72.5    149.2    149.2 149.18887 149.18887   0.00000   0.00000   0.00000   0.00000   3.13656  -0.40992  60.32162
      20 2002 12 21  0  1 13  66  3.8013    158.30108   1320.49885   1016.01838     -9.42156      7.55548     -1.59990    177.9    149.5      6.6     -6.0    528.1     72.4    149.2    149.2 149.18887 149.18887   0.00000   0.00000   0.00000   0.00000   3.13628  -0.40992  60.27346
      21 2002 12 21  0  1 16 864  3.7986    158.33297   1321.11531   1016.24382     -9.68754      7.93084     -1.64042    177.9    149.5      6.6     -6.1    528.2     72.4    149.2    149.2 149.18887 149.18887   0.00000   0.00000   0.00000   0.00000   3.13600  -0.40992  60.24862
      22 2002 12 21  0  1 20 660  3.7959    158.35758   1321.71733   1016.46818     -9.95284      8.49633     -1.67687    177.9    149.5      6.6     -6.1    528.3     72.3    149.2    149.2 149.18887 149.18887   0.00000   0.00000   0.00000   0.00000   3.13573  -0.40992  60.20045
      23 2002 12 21  0  1 24 454  3.7938    158.37328   1322.30550   1016.69137    -10.20066      8.96769     -1.70850    177.9    149.5      6.6     -6.1    528.4     72.3    149.2    149.2 149.18887 149.18887   0.00000   0.00000   0.00000   0.00000   3.13545  -0.40992  60.17571
      24 2002 12 21  0  1 28 246  3.7923    158.38689   1322.88096   1016.91333    -10.43282      9.48257     -1.73378    177.9    149.5      6.5     -6.1    528.5     72.3    149.2    149.2 149.18887 149.18887   0.00000   0.00000   0.00000   0.00000   3.13518  -0.40992  60.12768
      25 2002 12 21  0  1 32  38  3.7914    158.40648   1323.44438   1017.13401    -10.65043     10.21032     -1.75307    177.9    149.5      6.5     -6.1    528.6     72.2    149.2    149.2 149.18887 149.18887   0.00000   0.00000   0.00000   0.00000   3.13490  -0.40992  60.10323
      26 2002 12 21  0  1 35 829  3.7908    158.43279   1324.00076   1017.35333    -10.93438     10.83284     -1.76647    177.9    149.5      6.5     -6.1    528.8     72.2    149.2    149.2 149.18887 149.18887   0.00000   0.00000   0.00000   0.00000   3.13462  -0.40992  60.05543
      27 2002 12 21  0  1 39 619  3.7902    158.45885   1324.54928   1017.57121    -11.25934     11.30542     -1.77345    177.9    149.5      6.5     -6.1    528.9     72.1    149.2    149.2 149.18887 149.18887   0.00000   0.00000   0.00000   0.00000   3.13435  -0.40992  60.03165
      28 2002 12 21  0  1 43 409  3.7898    158.47807   1325.08955   1017.78761    -11.56929     11.93974     -1.77413    177.9    149.5      6.5     -6.1    529.0     72.1    149.2    149.2 149.18887 149.18887   0.00000   0.00000   0.00000   0.00000   3.13407  -0.40992  59.98380
      29 2002 12 21  0  1 47 199  3.7899    158.49063   1325.62211   1018.00251    -11.86166     12.62420     -1.76774    177.9    149.5      6.5     -6.1    529.1     72.0    149.2    149.2 149.18887 149.18887   0.00000   0.00000   0.00000   0.00000   3.13380  -0.40992  59.96053
      30 2002 12 21  0  1 50 989  3.7907    158.50337   1326.14747   1018.21591    -12.13443     13.16549     -1.75408    177.9    149.5      6.5     -6.1    529.2     72.0    149.2    149.2 149.18887 149.18887   0.00000   0.00000   0.00000   0.00000   3.13352  -0.40992  59.91284
      31 2002 12 21  0  1 54 781  3.7917    158.52246   1326.66575   1018.42777    -12.38622     14.19589     -1.73292    177.9    149.5      6.5     -6.1    529.3     72.0    149.2    149.2 149.18887 149.18887   0.00000   0.00000   0.00000   0.00000   3.13325  -0.40992  59.89002
      32 2002 12 21  0  1 58 574  3.7929    158.54762   1327.17579   1018.63806    -12.61445     15.14693     -1.70453    177.9    149.5      6.4     -6.1    529.5     71.9    149.2    149.2 149.18887 149.18887   0.00000   0.00000   0.00000   0.00000   3.13297  -0.40992  59.84265
      33 2002 12 21  0  2  2 368  3.7939    158.57324   1327.67861   1018.84676    -12.92691     15.93361     -1.66842    177.9    149.5      6.4     -6.1    529.5     72.0    149.2    149.2 149.18887 149.18887   0.00000   0.00000   0.00000   0.00000   3.13269  -0.40992  59.82045
      34 2002 12 21  0  2  6 163  3.7950    158.59464   1328.17459   1019.05398    -13.26440     16.50190     -1.62406    177.9    149.5      6.4     -6.2    529.5     72.1    147.7    147.7 147.72591 147.72591   0.00000   0.00000   0.00000   0.00000   3.13242  -0.40992  59.77313
      35 2002 12 21  0  2  9 957  3.7939    158.61268   1328.66346   1019.25953    -13.58411     17.39010     -1.57236    177.9    149.5      6.4     -6.2    529.6     72.2    147.7    147.7 147.72591 147.72591   0.00000   0.00000   0.00000   0.00000   3.13214  -0.40992  59.75159
      36 2002 12 21  0  2 13 752  3.7952    158.63237   1329.14587   1019.46349    -13.88113     18.29215     -1.51262    177.9    149.5      6.4     -6.2    529.6     72.3    147.7    147.7 147.72591 147.72591   0.00000   0.00000   0.00000   0.00000   3.13187  -0.40992  59.70424
      37 2002 12 21  0  2 17 549  3.7966    158.65737   1329.62185   1019.66585    -14.14824     18.97015     -1.44538    177.9    149.5      6.4     -6.2    529.6     72.4    147.7    147.7 147.72591 147.72591   0.00000   0.00000   0.00000   0.00000   3.13159  -0.40992  59.68332
      38 2002 12 21  0  2 21 347  3.7980    158.68657   1330.36901   1019.86664    -14.54587     20.21357     -1.37072    177.9    149.5      6.4     -6.2    529.6     72.5    147.7    147.7 147.72591 147.72591   0.00000   0.00000   0.00000   0.00000   3.13131  -0.40992  59.63614
      39 2002 12 21  0  2 25 146  3.7994    158.71589   1331.21839   1020.06585    -15.03387     21.39655     -1.28846    177.9    149.5      6.4     -6.2    529.7     72.6    147.7    147.7 147.72591 147.72591   0.00000   0.00000   0.00000   0.00000   3.13104  -0.40992  59.61585
      40 2002 12 21  0  2 28 947  3.8008    158.74300   1332.05852   1020.26354    -15.50867     22.38140     -1.19890    177.9    149.5      6.3     -6.2    529.7     72.7    147.7    147.7 147.72591 147.72591   0.00000   0.00000   0.00000   0.00000   3.13076  -0.40992  59.56871
      41 2002 12 21  0  2 32 749  3.8019    158.76958   1332.88930   1020.45971    -15.96507     23.10232     -1.10236    177.9    149.5      6.3     -6.3    529.7     72.8    147.7    147.7 147.72591 147.72591   0.00000   0.00000   0.00000   0.00000   3.13048  -0.40992  59.54906
      42 2002 12 21  0  2 36 552  3.8029    158.79902   1333.71070   1020.65440    -16.39674     23.82272     -0.99926    177.9    149.5      6.3     -6.3    529.8     72.9    147.7    147.7 147.72591 147.72591   0.00000   0.00000   0.00000   0.00000   3.13021  -0.40992  59.50191
      43 2002 12 21  0  2 40 355  3.8035    158.83238   1334.52289   1020.84766    -16.79783     24.96901     -0.88990    177.9    149.5      6.3     -6.3    529.8     73.0    147.7    147.7 147.72591 147.72591   0.00000   0.00000   0.00000   0.00000   3.12993  -0.40992  59.48293
      44 2002 12 21  0  2 44 159  3.8039    158.86710   1335.32578   1021.03952    -17.27606     25.90964     -0.77427    177.9    149.5      6.3     -6.3    529.8     73.1    147.7    147.7 147.72591 147.72591   0.00000   0.00000   0.00000   0.00000   3.12965  -0.40992  59.43571
      45 2002 12 21  0  2 47 963  3.8041    158.89975   1336.11936   1021.23006    -17.76155     26.83033     -0.65248    177.9    149.5      6.3     -6.3    529.9     73.2    147.7    147.7 147.72591 147.72591   0.00000   0.00000   0.00000   0.00000   3.12938  -0.40992  59.41746
      46 2002 12 21  0  2 51 767  3.8043    158.92977   1336.90368   1021.41936    -18.22118     28.28116     -0.52526    177.9    149.5      6.3     -6.3    529.9     73.3    147.7    147.7 147.72591 147.72591   0.00000   0.00000   0.00000   0.00000   3.12910  -0.40992  59.37011
      47 2002 12 21  0  2 55 572  3.8046    158.96003   1337.67880   1021.60752    -18.64574     29.53263     -0.39249    177.9    149.5      6.2     -6.3    529.9     73.5    147.7    147.7 147.72591 147.72591   0.00000   0.00000   0.00000   0.00000   3.12882  -0.40992  59.35263
      48 2002 12 21  0  2 59 377  3.8050    158.99388   1338.44482   1021.79465    -19.02315     30.51898     -0.25418    177.9    149.5      6.2     -6.4    530.0     73.6    147.7    147.7 147.72591 147.72591   0.00000   0.00000   0.00000   0.00000   3.12855  -0.40992  59.30510
      49 2002 12 21  0  3  3 182  3.8056    159.03175   1339.20162   1021.98087    -19.40157     31.20187     -0.11050    177.9    149.5      6.2     -6.3    530.0     73.7    147.7    147.7 147.72591 147.72591   0.00000   0.00000   0.00000   0.00000   3.12827  -0.40992  59.28850
      50 2002 12 21  0  3  6 988  3.8060    159.07051   1339.95374   1022.16656    -19.86736     32.35716      0.03836    177.9    149.5      6.2     -6.3    530.1     73.9    152.5    152.5 152.50470 152.50470   0.00000   0.00000   0.00000   0.00000   3.12799  -0.40992  59.24064
      51 2002 12 21  0  3 10 791  3.8026    159.10686   1340.69729   1022.35151    -20.29727     33.60077      0.19199    177.9    149.5      6.3     -6.3    530.2     74.1    152.5    152.5 152.50470 152.50470   0.00000   0.00000   0.00000   0.00000   3.12772  -0.40992  59.22498
      52 2002 12 21  0  3 14 593  3.8021    159.14024   1341.43309   1022.53595    -20.68084     34.59018      0.35150    177.9    149.5      6.3     -6.3    530.3     74.3    152.5    152.5 152.50470 152.50470   0.00000   0.00000   0.00000   0.00000   3.12744  -0.40992  59.17718
      53 2002 12 21  0  3 18 394  3.8011    159.17258   1342.16117   1022.72000    -21.00591     35.67686      0.51634    177.9    149.5      6.3     -6.3    530.4     74.5    152.5    152.5 152.50470 152.50470   0.00000   0.00000   0.00000   0.00000   3.12716  -0.40992  59.16252
      54 2002 12 21  0  3 22 194  3.7998    159.20585   1342.88196   1022.90380    -21.29655     37.22795      0.68696    177.9    149.5      6.3     -6.2    530.5     74.7    152.5    152.5 152.50470 152.50470   0.00000   0.00000   0.00000   0.00000   3.12689  -0.40992  59.11405
      55 2002 12 21  0  3 25 993  3.7986    159.24047   1343.59635   1023.08755    -21.71989     38.54425      0.86378    177.9    149.5      6.3     -6.2    530.6     74.9    152.5    152.5 152.50470 152.50470   0.00000   0.00000   0.00000   0.00000   3.12661  -0.40992  59.10035
      56 2002 12 21  0  3 29 790  3.7977    159.27530   1344.30491   1023.27145    -22.09763     39.55522      1.04702    177.9    149.5      6.3     -6.2    530.7     75.1    152.5    152.5 152.50470 152.50470   0.00000   0.00000   0.00000   0.00000   3.12634  -0.40992  59.05130
      57 2002 12 21  0  3 33 587  3.7972    159.30884   1345.00853   1023.45571    -22.41883     40.34555      1.23690    177.9    149.5      6.3     -6.2    530.7     75.3    152.5    152.5 152.50470 152.50470   0.00000   0.00000   0.00000   0.00000   3.12606  -0.40992  59.03858
      58 2002 12 21  0  3 37 385  3.7970    159.34113   1345.70812   1023.64057    -22.67016     41.89723      1.43396    177.9    149.5      6.3     -6.2    530.8     75.5    152.5    152.5 152.50470 152.50470   0.00000   0.00000   0.00000   0.00000   3.12578  -0.40992  58.98906
      59 2002 12 21  0  3 41 181  3.7969    159.37361   1346.40469   1023.82623    -22.99711     43.22825      1.63798    177.9    149.5      6.3     -6.1    530.9     75.7    152.5    152.5 152.50470 152.50470   0.00000   0.00000   0.00000   0.00000   3.12551  -0.40992  58.97747
      60 2002 12 21  0  3 44 978  3.7966    159.40716   1347.09930   1024.01291    -23.35894     44.26336      1.84956    177.9    149.5      6.3     -6.1    531.0     75.9    152.5    152.5 152.50470 152.50470   0.00000   0.00000   0.00000   0.00000   3.12523  -0.40992  58.92755
      61 2002 12 21  0  3 48 774  3.7958    159.44091   1347.79305   1024.20078    -23.66327     45.53243      2.06897    177.9    149.5      6.4     -6.1    531.1     76.1    152.5    152.5 152.50470 152.50470   0.00000   0.00000   0.00000   0.00000   3.12496  -0.40992  58.91679
      62 2002 12 21  0  3 52 568  3.7947    159.47318   1348.48715   1024.39004    -23.94104     47.13740      2.29592    177.9    149.5      6.4     -6.1    531.2     76.3    152.5    152.5 152.50470 152.50470   0.00000   0.00000   0.00000   0.00000   3.12468  -0.40992  58.86696
      63 2002 12 21  0  3 56 362  3.7932    159.50324   1349.18290   1024.58087    -24.35962     48.50482      2.53035    177.9    149.5      6.4     -6.1    531.3     76.5    152.5    152.5 152.50470 152.50470   0.00000   0.00000   0.00000   0.00000   3.12440  -0.40992  58.85692
      64 2002 12 21  0  4  0 153  3.7914    159.53215   1349.88177   1024.77345    -24.72920     49.58047      2.77215    177.9    149.5      6.4     -6.0    531.4     76.7    152.5    152.5 152.50470 152.50470   0.00000   0.00000   0.00000   0.00000   3.12413  -0.40992  58.80745
      65 2002 12 21  0  4  3 943  3.7897    159.56163   1350.57938   1024.96757    -25.03951     50.76292      3.02081    177.9    149.5      6.3     -6.1    531.5     76.8    163.8    163.8 163.80276 163.80276   0.00000   0.00000   0.00000   0.00000   3.12385  -0.40992  58.79829
