GITM2 log file
## Inputs from UAM.in
# Resart= F
# Eddy coef:    50.000 Eddy P0:     0.010 Eddy P1:     0.005
# Statistical Models Only:  F Apex:  F
# EUV Data:  TFile: 
UA/DataIn/FISM/fismflux_daily_2002.dat                                                                                                                                                                                                                                                                                                                                                                                                                                                                                                                                                                                  
# E-Field Model: weimer05 Auroral Model: FTA
# AMIE: none           
none                                                                                                                                                                                                                                                                                                                                                                                                                                                                                                                                                                                                                    
# Solar Heating:  T Joule Heating:  T
# NO Cooling:  T O Cooling:  T
# Conduction:  T Turbulent Conduction:  T
# Pressure Grad:  T Ion Drag:  T Neutral Drag:  T
# Viscosity:  T Coriolis:  T Gravity:  T
# Ion Chemistry:  T Ion Advection:  T Neutral Chemistry:  T
 
#START
   iStep yyyy mm dd hh mm ss  ms      dt min(T) max(T) mean(T) min(VV) max(VV) mean(VV) F107 F107A By Bz Vx HP HPn HPs HPn_diff HPs_diff HPn_w HPs_w HPn_m HPs_m SubsolarLon SubsolarLat SubsolarVTEC
       2 2002 12 21  0  0  4 105  4.1058    157.62863   1317.06364   1012.07579     -4.35960      5.73684      0.15888    177.9    149.5      6.1     -6.0    531.2     71.9    146.3    146.3 146.25404 146.25404   0.00000   0.00000   0.00000   0.00000   3.14129  -0.40992  59.24285
       3 2002 12 21  0  0  8  37  3.9320    157.58406   1317.55113   1012.50590     -8.35882      6.39370     -0.12219    177.9    149.5      6.2     -6.0    531.0     72.0    146.3    146.3 146.25404 146.25404   0.00000   0.00000   0.00000   0.00000   3.14101  -0.40992  61.59571
       4 2002 12 21  0  0 11 894  3.8564    157.61793   1317.95786   1012.92474     -9.31822      6.52895     -0.28680    177.9    149.5      6.2     -6.0    530.7     72.0    146.3    146.3 146.25404 146.25404   0.00000   0.00000   0.00000   0.00000   3.14073  -0.40992  60.89528
       5 2002 12 21  0  0 15 771  3.8775    157.67718   1318.34385   1013.34546     -9.32434      5.90040     -0.41273    177.9    149.5      6.2     -6.0    530.5     72.0    146.3    146.3 146.25404 146.25404   0.00000   0.00000   0.00000   0.00000   3.14045  -0.40992  61.27679
       6 2002 12 21  0  0 19 594  3.8226    157.74497   1318.72579   1013.75987    -10.37176      6.11137     -0.53013    177.9    149.5      6.3     -6.0    530.2     72.1    146.3    146.3 146.25404 146.25404   0.00000   0.00000   0.00000   0.00000   3.14017  -0.40992  61.18752
       7 2002 12 21  0  0 23 397  3.8030    157.81756   1319.10949   1014.17238    -10.85385      6.64787     -0.62967    177.9    149.5      6.3     -6.0    530.0     72.1    146.3    146.3 146.25404 146.25404   0.00000   0.00000   0.00000   0.00000   3.13989  -0.40992  61.25356
       8 2002 12 21  0  0 27 175  3.7786    157.87148   1319.50046   1014.58211    -11.90767      7.36407     -0.71999    177.9    149.5      6.3     -6.0    529.8     72.2    146.3    146.3 146.25404 146.25404   0.00000   0.00000   0.00000   0.00000   3.13962  -0.40992  61.21970
       9 2002 12 21  0  0 30 933  3.7572    157.91288   1319.90009   1014.98938    -13.17712      7.88578     -0.80697    177.9    149.5      6.4     -6.0    529.5     72.2    146.3    146.3 146.25404 146.25404   0.00000   0.00000   0.00000   0.00000   3.13934  -0.40992  61.22473
      10 2002 12 21  0  0 34 676  3.7433    157.95532   1320.30925   1015.39502    -13.48564      8.81126     -0.89034    177.9    149.5      6.4     -6.0    529.3     72.3    146.3    146.3 146.25404 146.25404   0.00000   0.00000   0.00000   0.00000   3.13907  -0.40992  61.18972
      11 2002 12 21  0  0 38 418  3.7422    158.00900   1320.72889   1015.80038    -15.06258     10.01985     -0.97012    177.9    149.5      6.4     -6.0    529.0     72.3    146.3    146.3 146.25404 146.25404   0.00000   0.00000   0.00000   0.00000   3.13880  -0.40992  61.17784
      12 2002 12 21  0  0 42 161  3.7432    158.08015   1321.15919   1016.20549    -16.44680     10.81645     -1.04327    177.9    149.5      6.5     -6.0    528.8     72.4    146.3    146.3 146.25404 146.25404   0.00000   0.00000   0.00000   0.00000   3.13853  -0.40992  61.13830
      13 2002 12 21  0  0 45 907  3.7461    158.15232   1321.59946   1016.61017    -17.51363     11.76621     -1.10765    177.9    149.5      6.5     -6.0    528.6     72.4    146.3    146.3 146.25404 146.25404   0.00000   0.00000   0.00000   0.00000   3.13825  -0.40992  61.11987
      14 2002 12 21  0  0 49 662  3.7550    158.20577   1322.26792   1017.01486    -18.53720     12.88753     -1.16863    177.9    149.5      6.5     -6.0    528.3     72.5    146.3    146.3 146.25404 146.25404   0.00000   0.00000   0.00000   0.00000   3.13798  -0.40992  61.07700
      15 2002 12 21  0  0 53 428  3.7653    158.24638   1323.25815   1017.41960    -19.77384     14.44883     -1.22954    177.9    149.5      6.6     -6.0    528.1     72.5    146.3    146.3 146.25404 146.25404   0.00000   0.00000   0.00000   0.00000   3.13771  -0.40992  61.05549
      16 2002 12 21  0  0 57 200  3.7720    158.27935   1324.26929   1017.82397    -21.82343     14.76907     -1.28904    177.9    149.5      6.6     -6.0    527.8     72.5    146.3    146.3 146.25404 146.25404   0.00000   0.00000   0.00000   0.00000   3.13743  -0.40992  61.01076
      17 2002 12 21  0  1  0 976  3.7767    158.31711   1325.25748   1018.22768    -22.51695     16.24368     -1.34405    177.9    149.5      6.6     -6.0    527.7     72.6    146.3    146.3 146.25404 146.25404   0.00000   0.00000   0.00000   0.00000   3.13716  -0.40992  60.98783
      18 2002 12 21  0  1  4 757  3.7806    158.36402   1326.22543   1018.63064    -24.66105     17.49541     -1.39123    177.9    149.5      6.6     -6.0    527.8     72.5    149.2    149.2 149.20098 149.20098   0.00000   0.00000   0.00000   0.00000   3.13688  -0.40992  60.94197
      19 2002 12 21  0  1  8 539  3.7817    158.41520   1327.17050   1019.03215    -25.77371     18.84906     -1.43393    177.9    149.5      6.6     -6.0    527.9     72.5    149.2    149.2 149.20098 149.20098   0.00000   0.00000   0.00000   0.00000   3.13661  -0.40992  60.91851
      20 2002 12 21  0  1 12 327  3.7882    158.45846   1328.09546   1019.43263    -28.44763     19.20661     -1.47597    177.9    149.5      6.6     -6.0    528.0     72.4    149.2    149.2 149.20098 149.20098   0.00000   0.00000   0.00000   0.00000   3.13633  -0.40992  60.87243
      21 2002 12 21  0  1 16 118  3.7909    158.48650   1329.00106   1019.83155    -29.46388     20.98138     -1.51937    177.9    149.5      6.6     -6.0    528.2     72.4    149.2    149.2 149.20098 149.20098   0.00000   0.00000   0.00000   0.00000   3.13606  -0.40992  60.84889
      22 2002 12 21  0  1 19 911  3.7936    158.50498   1329.88928   1020.22891    -31.29612     21.22147     -1.56100    177.9    149.5      6.6     -6.1    528.3     72.4    149.2    149.2 149.20098 149.20098   0.00000   0.00000   0.00000   0.00000   3.13578  -0.40992  60.80256
      23 2002 12 21  0  1 23 709  3.7973    158.52588   1330.76132   1020.62478    -33.38416     23.54026     -1.59720    177.9    149.5      6.6     -6.1    528.4     72.3    149.2    149.2 149.20098 149.20098   0.00000   0.00000   0.00000   0.00000   3.13551  -0.40992  60.77923
      24 2002 12 21  0  1 27 510  3.8013    158.55483   1331.61723   1021.01901    -34.73711     23.84446     -1.62764    177.9    149.5      6.5     -6.1    528.5     72.3    149.2    149.2 149.20098 149.20098   0.00000   0.00000   0.00000   0.00000   3.13523  -0.40992  60.73282
      25 2002 12 21  0  1 31 315  3.8049    158.58581   1332.46010   1021.41133    -37.56630     25.25708     -1.65200    177.9    149.5      6.5     -6.1    528.6     72.2    149.2    149.2 149.20098 149.20098   0.00000   0.00000   0.00000   0.00000   3.13495  -0.40992  60.70988
      26 2002 12 21  0  1 35 123  3.8081    158.60818   1333.29220   1021.80158    -37.74248     26.81967     -1.67217    177.9    149.5      6.5     -6.1    528.7     72.2    149.2    149.2 149.20098 149.20098   0.00000   0.00000   0.00000   0.00000   3.13468  -0.40992  60.66346
      27 2002 12 21  0  1 38 934  3.8112    158.62114   1334.11277   1022.18966    -40.40050     26.32083     -1.69038    177.9    149.5      6.5     -6.1    528.9     72.1    149.2    149.2 149.20098 149.20098   0.00000   0.00000   0.00000   0.00000   3.13440  -0.40992  60.64126
      28 2002 12 21  0  1 42 749  3.8143    158.63445   1334.92282   1022.57562    -42.57699     28.75999     -1.70571    177.9    149.5      6.5     -6.1    529.0     72.1    149.2    149.2 149.20098 149.20098   0.00000   0.00000   0.00000   0.00000   3.13412  -0.40992  60.59459
      29 2002 12 21  0  1 46 566  3.8174    158.65546   1335.72264   1022.95936    -42.62074     29.67181     -1.71567    177.9    149.5      6.5     -6.1    529.1     72.1    149.2    149.2 149.20098 149.20098   0.00000   0.00000   0.00000   0.00000   3.13384  -0.40992  60.57290
      30 2002 12 21  0  1 50 386  3.8198    158.68068   1336.51154   1023.34070    -46.47532     29.91001     -1.71872    177.9    149.5      6.5     -6.1    529.2     72.0    149.2    149.2 149.20098 149.20098   0.00000   0.00000   0.00000   0.00000   3.13357  -0.40992  60.52626
      31 2002 12 21  0  1 54 208  3.8218    158.70175   1337.28844   1023.71950    -47.70027     32.55068     -1.71381    177.9    149.5      6.5     -6.1    529.3     72.0    149.2    149.2 149.20098 149.20098   0.00000   0.00000   0.00000   0.00000   3.13329  -0.40992  60.50505
      32 2002 12 21  0  1 58  32  3.8244    158.71506   1338.05504   1024.09578    -47.43278     33.28407     -1.70179    177.9    149.5      6.4     -6.1    529.4     71.9    149.2    149.2 149.20098 149.20098   0.00000   0.00000   0.00000   0.00000   3.13301  -0.40992  60.45860
      33 2002 12 21  0  2  1 859  3.8274    158.72655   1339.11002   1024.46956    -51.39115     33.09805     -1.68377    177.9    149.5      6.4     -6.1    529.5     72.0    149.2    149.2 149.20098 149.20098   0.00000   0.00000   0.00000   0.00000   3.13273  -0.40992  60.43794
      34 2002 12 21  0  2  5 689  3.8301    158.74498   1340.28811   1024.84101    -52.56490     35.72297     -1.65998    177.9    149.5      6.4     -6.2    529.5     72.1    147.7    147.7 147.70036 147.70036   0.00000   0.00000   0.00000   0.00000   3.13245  -0.40992  60.39139
      35 2002 12 21  0  2  9 519  3.8298    158.77223   1341.45304   1025.20964    -52.42920     36.55213     -1.63032    177.9    149.5      6.4     -6.2    529.6     72.2    147.7    147.7 147.70036 147.70036   0.00000   0.00000   0.00000   0.00000   3.13217  -0.40992  60.37131
      36 2002 12 21  0  2 13 350  3.8310    158.80144   1342.60651   1025.57557    -56.58357     36.67673     -1.59336    177.9    149.5      6.4     -6.2    529.6     72.3    147.7    147.7 147.70036 147.70036   0.00000   0.00000   0.00000   0.00000   3.13190  -0.40992  60.32457
      37 2002 12 21  0  2 17 182  3.8318    158.82474   1343.74847   1025.93876    -57.99105     39.58971     -1.54816    177.9    149.5      6.4     -6.2    529.6     72.4    147.7    147.7 147.70036 147.70036   0.00000   0.00000   0.00000   0.00000   3.13162  -0.40992  60.30503
      38 2002 12 21  0  2 21  15  3.8330    158.84180   1344.87958   1026.29935    -55.88980     40.79550     -1.49441    177.9    149.5      6.4     -6.2    529.6     72.5    147.7    147.7 147.70036 147.70036   0.00000   0.00000   0.00000   0.00000   3.13134  -0.40992  60.25836
      39 2002 12 21  0  2 24 850  3.8345    158.86000   1346.00011   1026.65741    -60.47453     40.02390     -1.43349    177.9    149.5      6.4     -6.2    529.7     72.6    147.7    147.7 147.70036 147.70036   0.00000   0.00000   0.00000   0.00000   3.13106  -0.40992  60.23930
      40 2002 12 21  0  2 28 685  3.8356    158.88643   1347.10941   1027.01297    -62.65201     42.47152     -1.36699    177.9    149.5      6.3     -6.2    529.7     72.7    147.7    147.7 147.70036 147.70036   0.00000   0.00000   0.00000   0.00000   3.13078  -0.40992  60.19252
      41 2002 12 21  0  2 32 521  3.8356    158.92080   1348.20672   1027.36595    -61.27396     44.23983     -1.29549    177.9    149.5      6.3     -6.3    529.7     72.8    147.7    147.7 147.70036 147.70036   0.00000   0.00000   0.00000   0.00000   3.13050  -0.40992  60.17394
      42 2002 12 21  0  2 36 356  3.8347    158.95649   1349.29167   1027.71639    -64.11012     44.09273     -1.21915    177.9    149.5      6.3     -6.3    529.8     72.9    147.7    147.7 147.70036 147.70036   0.00000   0.00000   0.00000   0.00000   3.13022  -0.40992  60.12704
      43 2002 12 21  0  2 40 189  3.8334    158.98804   1350.36333   1028.06437    -67.46326     45.68353     -1.13837    177.9    149.5      6.3     -6.3    529.8     73.0    147.7    147.7 147.70036 147.70036   0.00000   0.00000   0.00000   0.00000   3.12994  -0.40992  60.10897
      44 2002 12 21  0  2 44  21  3.8323    159.01643   1351.42242   1028.41009    -67.52912     48.09753     -1.05317    177.9    149.5      6.3     -6.3    529.8     73.1    147.7    147.7 147.70036 147.70036   0.00000   0.00000   0.00000   0.00000   3.12966  -0.40992  60.06189
      45 2002 12 21  0  2 47 853  3.8314    159.04711   1352.46965   1028.75370    -65.14613     48.78824     -0.96404    177.9    149.5      6.3     -6.3    529.9     73.2    147.7    147.7 147.70036 147.70036   0.00000   0.00000   0.00000   0.00000   3.12939  -0.40992  60.04431
      46 2002 12 21  0  2 51 683  3.8306    159.08354   1353.50514   1029.09535    -69.31426     48.10811     -0.87285    177.9    149.5      6.3     -6.3    529.9     73.3    147.7    147.7 147.70036 147.70036   0.00000   0.00000   0.00000   0.00000   3.12911  -0.40992  59.99699
      47 2002 12 21  0  2 55 512  3.8292    159.12355   1354.52837   1029.43510    -70.93365     51.08971     -0.78061    177.9    149.5      6.2     -6.3    529.9     73.5    147.7    147.7 147.70036 147.70036   0.00000   0.00000   0.00000   0.00000   3.12883  -0.40992  59.98000
      48 2002 12 21  0  2 59 339  3.8270    159.16326   1355.53927   1029.77308    -68.87410     52.76558     -0.68603    177.9    149.5      6.2     -6.4    530.0     73.6    147.7    147.7 147.70036 147.70036   0.00000   0.00000   0.00000   0.00000   3.12855  -0.40992  59.93239
      49 2002 12 21  0  3  3 164  3.8244    159.20010   1356.53841   1030.10955    -71.02126     52.65402     -0.58848    177.9    149.5      6.2     -6.3    530.0     73.7    147.7    147.7 147.70036 147.70036   0.00000   0.00000   0.00000   0.00000   3.12827  -0.40992  59.91612
      50 2002 12 21  0  3  6 986  3.8219    159.23634   1357.53095   1030.44505    -74.43382     54.25467     -0.48770    177.9    149.5      6.2     -6.3    530.1     73.9    152.5    152.5 152.50295 152.50295   0.00000   0.00000   0.00000   0.00000   3.12799  -0.40992  59.86826
      51 2002 12 21  0  3 10 802  3.8159    159.27584   1358.51181   1030.77920    -74.76166     56.74283     -0.38302    177.9    149.5      6.3     -6.3    530.2     74.1    152.5    152.5 152.50295 152.50295   0.00000   0.00000   0.00000   0.00000   3.12772  -0.40992  59.85277
      52 2002 12 21  0  3 14 615  3.8133    159.31923   1359.48328   1031.11252    -71.33957     57.73321     -0.27134    177.9    149.5      6.3     -6.3    530.3     74.3    152.5    152.5 152.50295 152.50295   0.00000   0.00000   0.00000   0.00000   3.12744  -0.40992  59.80481
      53 2002 12 21  0  3 18 426  3.8108    159.36329   1360.44513   1031.44523    -73.73773     58.53248     -0.15105    177.9    149.5      6.3     -6.3    530.4     74.5    152.5    152.5 152.50295 152.50295   0.00000   0.00000   0.00000   0.00000   3.12716  -0.40992  59.79024
      54 2002 12 21  0  3 22 234  3.8083    159.40429   1361.39800   1031.77759    -75.99093     60.49094     -0.01965    177.9    149.5      6.3     -6.2    530.5     74.7    152.5    152.5 152.50295 152.50295   0.00000   0.00000   0.00000   0.00000   3.12689  -0.40992  59.74157
      55 2002 12 21  0  3 26  40  3.8061    159.44196   1362.34278   1032.10978    -75.19262     62.05634      0.12623    177.9    149.5      6.3     -6.2    530.6     74.9    152.5    152.5 152.50295 152.50295   0.00000   0.00000   0.00000   0.00000   3.12661  -0.40992  59.72785
      56 2002 12 21  0  3 29 844  3.8039    159.47981   1363.28026   1032.44214    -73.69498     63.52489      0.28915    177.9    149.5      6.3     -6.2    530.7     75.1    152.5    152.5 152.50295 152.50295   0.00000   0.00000   0.00000   0.00000   3.12633  -0.40992  59.67866
      57 2002 12 21  0  3 33 646  3.8019    159.52100   1364.21137   1032.77503    -76.98759     65.93272      0.47000    177.9    149.5      6.3     -6.2    530.7     75.3    152.5    152.5 152.50295 152.50295   0.00000   0.00000   0.00000   0.00000   3.12606  -0.40992  59.66583
      58 2002 12 21  0  3 37 446  3.7997    159.56488   1365.13697   1033.10869    -78.35108     67.40214      0.67055    177.9    149.5      6.3     -6.2    530.8     75.5    152.5    152.5 152.50295 152.50295   0.00000   0.00000   0.00000   0.00000   3.12578  -0.40992  59.61587
      59 2002 12 21  0  3 41 243  3.7972    159.60779   1366.05816   1033.44326    -77.16437     70.75798      0.89293    177.9    149.5      6.3     -6.1    530.9     75.7    152.5    152.5 152.50295 152.50295   0.00000   0.00000   0.00000   0.00000   3.12550  -0.40992  59.60399
      60 2002 12 21  0  3 45  37  3.7945    159.64693   1366.97629   1033.77894    -75.16382     73.42865      1.13913    177.9    149.5      6.4     -6.1    531.0     75.9    152.5    152.5 152.50295 152.50295   0.00000   0.00000   0.00000   0.00000   3.12523  -0.40992  59.55357
      61 2002 12 21  0  3 48 829  3.7919    159.68290   1367.89283   1034.11601    -77.65800     74.06715      1.40980    177.9    149.5      6.4     -6.1    531.1     76.1    152.5    152.5 152.50295 152.50295   0.00000   0.00000   0.00000   0.00000   3.12495  -0.40992  59.54239
      62 2002 12 21  0  3 52 619  3.7894    159.71945   1368.80931   1034.45468    -78.22268     76.80516      1.70494    177.9    149.5      6.4     -6.1    531.2     76.3    152.5    152.5 152.50295 152.50295   0.00000   0.00000   0.00000   0.00000   3.12468  -0.40992  59.49207
      63 2002 12 21  0  3 56 406  3.7873    159.75861   1369.72736   1034.79507    -77.04087     80.66219      2.02384    177.9    149.5      6.4     -6.1    531.3     76.5    152.5    152.5 152.50295 152.50295   0.00000   0.00000   0.00000   0.00000   3.12440  -0.40992  59.48153
      64 2002 12 21  0  4  0 192  3.7856    159.79919   1370.64878   1035.13740    -76.18237     83.52256      2.36450    177.9    149.5      6.4     -6.0    531.4     76.7    152.5    152.5 152.50295 152.50295   0.00000   0.00000   0.00000   0.00000   3.12413  -0.40992  59.43155
      65 2002 12 21  0  4  3 976  3.7842    159.83832   1371.56981   1035.48156    -78.10579     84.10265      2.72356    177.9    149.5      6.3     -6.1    531.5     76.8    163.8    163.8 163.80353 163.80353   0.00000   0.00000   0.00000   0.00000   3.12385  -0.40992  59.42187
