GITM2 log file
## Inputs from UAM.in
# Resart= F
# Eddy coef:    50.000 Eddy P0:     0.010 Eddy P1:     0.005
# Statistical Models Only:  F Apex:  F
# EUV Data:  TFile: 
UA/DataIn/FISM/fismflux_daily_2002.dat                                                                                                                                                                                                                                                                                                                                                                                                                                                                                                                                                                                  
# E-Field Model: weimer05 Auroral Model: FTA
# AMIE: none           
none                                                                                                                                                                                                                                                                                                                                                                                                                                                                                                                                                                                                                    
# Solar Heating:  T Joule Heating:  T
# NO Cooling:  T O Cooling:  T
# Conduction:  T Turbulent Conduction:  T
# Pressure Grad:  T Ion Drag:  T Neutral Drag:  T
# Viscosity:  T Coriolis:  T Gravity:  T
# Ion Chemistry:  T Ion Advection:  T Neutral Chemistry:  T
 
#START
   iStep yyyy mm dd hh mm ss  ms      dt min(T) max(T) mean(T) min(VV) max(VV) mean(VV) F107 F107A By Bz Vx HP HPn HPs HPn_diff HPs_diff HPn_w HPs_w HPn_m HPs_m SubsolarLon SubsolarLat SubsolarVTEC
       2 2002 12 21  0  0  4 105  4.1058    157.62863   1317.06364   1012.07579     -4.35960      5.73684      0.15888    177.9    149.5      6.1     -6.0    531.2     71.9    146.3    146.3 146.25404 146.25404   0.00000   0.00000   0.00000   0.00000   3.14129  -0.40992  58.75926
       3 2002 12 21  0  0  8  37  3.9320    157.58317   1316.99380   1012.25985     -8.35853      6.39484     -0.12503    177.9    149.5      6.2     -6.0    531.0     72.0    146.3    146.3 146.25404 146.25404   0.00000   0.00000   0.00000   0.00000   3.14101  -0.40992  60.82292
       4 2002 12 21  0  0 11 887  3.8494    157.60674   1316.93655   1012.45450     -9.31339      6.54135     -0.29314    177.9    149.5      6.2     -6.0    530.7     72.0    146.3    146.3 146.25404 146.25404   0.00000   0.00000   0.00000   0.00000   3.14073  -0.40992  60.34769
       5 2002 12 21  0  0 15 775  3.8880    157.66069   1316.87789   1012.66025     -9.32684      5.90046     -0.42139    177.9    149.5      6.2     -6.0    530.5     72.0    146.3    146.3 146.25404 146.25404   0.00000   0.00000   0.00000   0.00000   3.14045  -0.40992  60.67106
       6 2002 12 21  0  0 19 610  3.8353    157.72697   1316.83748   1012.86948    -10.36925      6.11710     -0.54060    177.9    149.5      6.3     -6.0    530.2     72.1    146.3    146.3 146.25404 146.25404   0.00000   0.00000   0.00000   0.00000   3.14017  -0.40992  60.61732
       7 2002 12 21  0  0 23 420  3.8101    157.79803   1316.81031   1013.08246    -10.86891      6.64414     -0.64377    177.9    149.5      6.3     -6.0    530.0     72.1    146.3    146.3 146.25404 146.25404   0.00000   0.00000   0.00000   0.00000   3.13989  -0.40992  60.67173
       8 2002 12 21  0  0 27 208  3.7875    157.84491   1316.79885   1013.29802    -11.91440      7.36070     -0.73782    177.9    149.5      6.3     -6.0    529.8     72.2    146.3    146.3 146.25404 146.25404   0.00000   0.00000   0.00000   0.00000   3.13961  -0.40992  60.64437
       9 2002 12 21  0  0 30 973  3.7659    157.88096   1316.80304   1013.51546    -13.19544      7.87143     -0.82865    177.9    149.5      6.4     -6.0    529.5     72.2    146.3    146.3 146.25404 146.25404   0.00000   0.00000   0.00000   0.00000   3.13934  -0.40992  60.64675
      10 2002 12 21  0  0 34 725  3.7519    157.91854   1316.82175   1013.73476    -13.54150      8.78838     -0.91637    177.9    149.5      6.4     -6.0    529.3     72.3    146.3    146.3 146.25404 146.25404   0.00000   0.00000   0.00000   0.00000   3.13907  -0.40992  60.61258
      11 2002 12 21  0  0 38 476  3.7509    157.97068   1316.85380   1013.95625    -15.10628      9.98463     -1.00115    177.9    149.5      6.4     -6.0    529.0     72.3    146.3    146.3 146.25404 146.25404   0.00000   0.00000   0.00000   0.00000   3.13879  -0.40992  60.59951
      12 2002 12 21  0  0 42 228  3.7515    158.04070   1316.89879   1014.17955    -16.50515     10.75680     -1.07809    177.9    149.5      6.5     -6.0    528.8     72.4    146.3    146.3 146.25404 146.25404   0.00000   0.00000   0.00000   0.00000   3.13852  -0.40992  60.55952
      13 2002 12 21  0  0 45 982  3.7544    158.10973   1316.95561   1014.40422    -17.54805     11.72228     -1.14739    177.9    149.5      6.5     -6.0    528.6     72.4    146.3    146.3 146.25404 146.25404   0.00000   0.00000   0.00000   0.00000   3.13825  -0.40992  60.54002
      14 2002 12 21  0  0 49 746  3.7634    158.15574   1317.02259   1014.63026    -18.63411     12.86453     -1.21429    177.9    149.5      6.5     -6.0    528.3     72.5    146.3    146.3 146.25404 146.25404   0.00000   0.00000   0.00000   0.00000   3.13798  -0.40992  60.49630
      15 2002 12 21  0  0 53 519  3.7737    158.19134   1317.09873   1014.85748    -19.83163     14.40808     -1.28239    177.9    149.5      6.6     -6.0    528.1     72.5    146.3    146.3 146.25404 146.25404   0.00000   0.00000   0.00000   0.00000   3.13770  -0.40992  60.47362
      16 2002 12 21  0  0 57 300  3.7808    158.22160   1317.73094   1015.08558    -21.91267     14.68903     -1.34921    177.9    149.5      6.6     -6.0    527.8     72.5    146.3    146.3 146.25404 146.25404   0.00000   0.00000   0.00000   0.00000   3.13743  -0.40992  60.42784
      17 2002 12 21  0  1  1  85  3.7853    158.25718   1318.40872   1015.31423    -22.55916     16.15904     -1.41107    177.9    149.5      6.6     -6.0    527.7     72.6    146.3    146.3 146.25404 146.25404   0.00000   0.00000   0.00000   0.00000   3.13715  -0.40992  60.40363
      18 2002 12 21  0  1  4 875  3.7892    158.30116   1319.07256   1015.54325    -24.79033     17.44534     -1.46490    177.9    149.5      6.6     -6.0    527.8     72.5    149.2    149.2 149.19902 149.19902   0.00000   0.00000   0.00000   0.00000   3.13687  -0.40992  60.35653
      19 2002 12 21  0  1  8 665  3.7905    158.34935   1319.72009   1015.77206    -25.82739     18.77885     -1.51325    177.9    149.5      6.6     -6.0    527.9     72.5    149.2    149.2 149.19902 149.19902   0.00000   0.00000   0.00000   0.00000   3.13660  -0.40992  60.33171
      20 2002 12 21  0  1 12 462  3.7970    158.38742   1320.35314   1016.00071    -28.59055     19.12454     -1.56125    177.9    149.5      6.6     -6.0    528.0     72.4    149.2    149.2 149.19902 149.19902   0.00000   0.00000   0.00000   0.00000   3.13632  -0.40992  60.28422
      21 2002 12 21  0  1 16 262  3.8001    158.40952   1320.97249   1016.22886    -29.52480     20.84840     -1.61058    177.9    149.5      6.6     -6.0    528.2     72.4    149.2    149.2 149.19902 149.19902   0.00000   0.00000   0.00000   0.00000   3.13605  -0.40992  60.25922
      22 2002 12 21  0  1 20  65  3.8028    158.42404   1321.57926   1016.45642    -31.48918     21.14966     -1.65817    177.9    149.5      6.6     -6.1    528.3     72.4    149.2    149.2 149.19902 149.19902   0.00000   0.00000   0.00000   0.00000   3.13577  -0.40992  60.21132
      23 2002 12 21  0  1 23 871  3.8066    158.44197   1322.17375   1016.68335    -33.47053     23.41258     -1.70084    177.9    149.5      6.6     -6.1    528.4     72.3    149.2    149.2 149.19902 149.19902   0.00000   0.00000   0.00000   0.00000   3.13549  -0.40992  60.18644
      24 2002 12 21  0  1 27 682  3.8106    158.46728   1322.75623   1016.90943    -35.02192     23.64054     -1.73769    177.9    149.5      6.5     -6.1    528.5     72.3    149.2    149.2 149.19902 149.19902   0.00000   0.00000   0.00000   0.00000   3.13522  -0.40992  60.13834
      25 2002 12 21  0  1 31 496  3.8142    158.49532   1323.32675   1017.13439    -37.75342     25.17120     -1.76932    177.9    149.5      6.5     -6.1    528.6     72.2    149.2    149.2 149.19902 149.19902   0.00000   0.00000   0.00000   0.00000   3.13494  -0.40992  60.11377
      26 2002 12 21  0  1 35 314  3.8174    158.51551   1323.88967   1017.35805    -37.76875     26.64870     -1.79731    177.9    149.5      6.5     -6.1    528.7     72.2    149.2    149.2 149.19902 149.19902   0.00000   0.00000   0.00000   0.00000   3.13466  -0.40992  60.06561
      27 2002 12 21  0  1 39 134  3.8205    158.52505   1324.44618   1017.58030    -40.63756     26.06032     -1.82403    177.9    149.5      6.5     -6.1    528.9     72.1    149.2    149.2 149.19902 149.19902   0.00000   0.00000   0.00000   0.00000   3.13438  -0.40992  60.04175
      28 2002 12 21  0  1 42 958  3.8237    158.53361   1324.99559   1017.80113    -42.67679     28.65012     -1.84800    177.9    149.5      6.5     -6.1    529.0     72.1    149.2    149.2 149.19902 149.19902   0.00000   0.00000   0.00000   0.00000   3.13411  -0.40992  59.99332
      29 2002 12 21  0  1 46 785  3.8268    158.55048   1325.53809   1018.02045    -43.03898     29.47238     -1.86671    177.9    149.5      6.5     -6.1    529.1     72.1    149.2    149.2 149.19902 149.19902   0.00000   0.00000   0.00000   0.00000   3.13383  -0.40992  59.96997
      30 2002 12 21  0  1 50 614  3.8291    158.57284   1326.07338   1018.23805    -46.76993     29.82309     -1.87807    177.9    149.5      6.5     -6.1    529.2     72.0    149.2    149.2 149.19902 149.19902   0.00000   0.00000   0.00000   0.00000   3.13355  -0.40992  59.92157
      31 2002 12 21  0  1 54 445  3.8311    158.59316   1326.60137   1018.45380    -47.78828     32.39059     -1.88199    177.9    149.5      6.5     -6.1    529.3     72.0    149.2    149.2 149.19902 149.19902   0.00000   0.00000   0.00000   0.00000   3.13327  -0.40992  59.89872
      32 2002 12 21  0  1 58 278  3.8336    158.60511   1327.12101   1018.66767    -47.83236     33.02402     -1.87895    177.9    149.5      6.4     -6.1    529.4     71.9    149.2    149.2 149.19902 149.19902   0.00000   0.00000   0.00000   0.00000   3.13299  -0.40992  59.85057
      33 2002 12 21  0  2  2 115  3.8366    158.61322   1327.63385   1018.87966    -51.67201     33.02349     -1.86987    177.9    149.5      6.4     -6.1    529.5     72.0    149.2    149.2 149.19902 149.19902   0.00000   0.00000   0.00000   0.00000   3.13271  -0.40992  59.82837
      34 2002 12 21  0  2  5 954  3.8392    158.62697   1328.14039   1019.08989    -52.63429     35.57307     -1.85535    177.9    149.5      6.4     -6.2    529.5     72.1    147.7    147.7 147.71321 147.71321   0.00000   0.00000   0.00000   0.00000   3.13243  -0.40992  59.78019
      35 2002 12 21  0  2  9 793  3.8389    158.65005   1328.64013   1019.29803    -52.93822     36.28766     -1.83536    177.9    149.5      6.4     -6.2    529.6     72.2    147.7    147.7 147.71321 147.71321   0.00000   0.00000   0.00000   0.00000   3.13215  -0.40992  59.75869
      36 2002 12 21  0  2 13 633  3.8401    158.67650   1329.13332   1019.50409    -56.93786     36.58254     -1.80830    177.9    149.5      6.4     -6.2    529.6     72.3    147.7    147.7 147.71321 147.71321   0.00000   0.00000   0.00000   0.00000   3.13187  -0.40992  59.71044
      37 2002 12 21  0  2 17 474  3.8410    158.69771   1329.61980   1019.70807    -58.10292     39.41966     -1.77319    177.9    149.5      6.4     -6.2    529.6     72.4    147.7    147.7 147.71321 147.71321   0.00000   0.00000   0.00000   0.00000   3.13160  -0.40992  59.68961
      38 2002 12 21  0  2 21 316  3.8421    158.71212   1330.42097   1019.91005    -56.29148     40.51092     -1.72976    177.9    149.5      6.4     -6.2    529.6     72.5    147.7    147.7 147.71321 147.71321   0.00000   0.00000   0.00000   0.00000   3.13132  -0.40992  59.64154
      39 2002 12 21  0  2 25 160  3.8434    158.72677   1331.28888   1020.11007    -60.86256     39.61794     -1.67962    177.9    149.5      6.4     -6.2    529.7     72.6    147.7    147.7 147.71321 147.71321   0.00000   0.00000   0.00000   0.00000   3.13104  -0.40992  59.62136
      40 2002 12 21  0  2 29   4  3.8444    158.74954   1332.14815   1020.30817    -62.79404     42.32158     -1.62422    177.9    149.5      6.3     -6.2    529.7     72.7    147.7    147.7 147.71321 147.71321   0.00000   0.00000   0.00000   0.00000   3.13076  -0.40992  59.57333
      41 2002 12 21  0  2 32 848  3.8443    158.78072   1332.99811   1020.50432    -61.09916     43.97133     -1.56409    177.9    149.5      6.3     -6.3    529.7     72.8    147.7    147.7 147.71321 147.71321   0.00000   0.00000   0.00000   0.00000   3.13048  -0.40992  59.55381
      42 2002 12 21  0  2 36 692  3.8433    158.81330   1333.83744   1020.69857    -64.68047     43.69042     -1.49959    177.9    149.5      6.3     -6.3    529.8     72.9    147.7    147.7 147.71321 147.71321   0.00000   0.00000   0.00000   0.00000   3.13020  -0.40992  59.50580
      43 2002 12 21  0  2 40 534  3.8419    158.84087   1334.66661   1020.89103    -67.78824     45.52508     -1.43143    177.9    149.5      6.3     -6.3    529.8     73.0    147.7    147.7 147.71321 147.71321   0.00000   0.00000   0.00000   0.00000   3.12992  -0.40992  59.48699
      44 2002 12 21  0  2 44 374  3.8408    158.86417   1335.48613   1021.08186    -67.50738     47.83119     -1.35875    177.9    149.5      6.3     -6.3    529.8     73.1    147.7    147.7 147.71321 147.71321   0.00000   0.00000   0.00000   0.00000   3.12964  -0.40992  59.43897
      45 2002 12 21  0  2 48 214  3.8399    158.88960   1336.29622   1021.27119    -65.76976     48.37965     -1.28255    177.9    149.5      6.3     -6.3    529.9     73.2    147.7    147.7 147.71321 147.71321   0.00000   0.00000   0.00000   0.00000   3.12936  -0.40992  59.42089
      46 2002 12 21  0  2 52  53  3.8390    158.92228   1337.09664   1021.45916    -69.77460     48.01263     -1.20477    177.9    149.5      6.3     -6.3    529.9     73.4    147.7    147.7 147.71321 147.71321   0.00000   0.00000   0.00000   0.00000   3.12908  -0.40992  59.37280
      47 2002 12 21  0  2 55 891  3.8375    158.96101   1337.88716   1021.64586    -71.10650     50.91397     -1.12595    177.9    149.5      6.2     -6.3    529.9     73.5    147.7    147.7 147.71321 147.71321   0.00000   0.00000   0.00000   0.00000   3.12880  -0.40992  59.35557
      48 2002 12 21  0  2 59 726  3.8354    158.99715   1338.66778   1021.83143    -68.63604     52.45143     -1.04486    177.9    149.5      6.2     -6.4    530.0     73.6    147.7    147.7 147.71321 147.71321   0.00000   0.00000   0.00000   0.00000   3.12852  -0.40992  59.30731
      49 2002 12 21  0  3  3 559  3.8330    159.02911   1339.43871   1022.01616    -71.67791     52.18399     -0.96092    177.9    149.5      6.2     -6.3    530.0     73.8    147.7    147.7 147.71321 147.71321   0.00000   0.00000   0.00000   0.00000   3.12824  -0.40992  59.29100
      50 2002 12 21  0  3  7 390  3.8304    159.06021   1340.20462   1022.20051    -74.83729     54.07840     -0.87397    177.9    149.5      6.2     -6.3    530.1     74.0    152.5    152.5 152.54010 152.54010   0.00000   0.00000   0.00000   0.00000   3.12797  -0.40992  59.24256
      51 2002 12 21  0  3 11 214  3.8245    159.09544   1340.96174   1022.38431    -74.78836     56.45229     -0.78322    177.9    149.5      6.3     -6.3    530.2     74.2    152.5    152.5 152.54010 152.54010   0.00000   0.00000   0.00000   0.00000   3.12769  -0.40992  59.22722
      52 2002 12 21  0  3 15  36  3.8218    159.13494   1341.71096   1022.56790    -70.95536     57.28862     -0.68543    177.9    149.5      6.3     -6.3    530.3     74.4    152.5    152.5 152.54010 152.54010   0.00000   0.00000   0.00000   0.00000   3.12741  -0.40992  59.17877
      53 2002 12 21  0  3 18 855  3.8194    159.17457   1342.45246   1022.75150    -74.32244     58.06262     -0.57881    177.9    149.5      6.3     -6.3    530.4     74.6    152.5    152.5 152.54010 152.54010   0.00000   0.00000   0.00000   0.00000   3.12713  -0.40992  59.16455
      54 2002 12 21  0  3 22 672  3.8170    159.21066   1343.18704   1022.93535    -76.31093     59.90266     -0.46064    177.9    149.5      6.3     -6.2    530.5     74.8    152.5    152.5 152.54010 152.54010   0.00000   0.00000   0.00000   0.00000   3.12685  -0.40992  59.11545
      55 2002 12 21  0  3 26 487  3.8149    159.24360   1343.91544   1023.11963    -75.10757     61.71967     -0.32775    177.9    149.5      6.3     -6.2    530.6     75.0    152.5    152.5 152.54010 152.54010   0.00000   0.00000   0.00000   0.00000   3.12658  -0.40992  59.10224
      56 2002 12 21  0  3 30 300  3.8128    159.27738   1344.63834   1023.30466    -74.26223     63.09887     -0.17771    177.9    149.5      6.3     -6.2    530.7     75.2    152.5    152.5 152.54010 152.54010   0.00000   0.00000   0.00000   0.00000   3.12630  -0.40992  59.05274
      57 2002 12 21  0  3 34 111  3.8106    159.31481   1345.35654   1023.49079    -77.35138     65.40615     -0.00938    177.9    149.5      6.3     -6.2    530.8     75.4    152.5    152.5 152.54010 152.54010   0.00000   0.00000   0.00000   0.00000   3.12602  -0.40992  59.04075
      58 2002 12 21  0  3 37 919  3.8083    159.35501   1346.07096   1023.67825    -78.58151     66.72852      0.17904    177.9    149.5      6.3     -6.2    530.8     75.6    152.5    152.5 152.54010 152.54010   0.00000   0.00000   0.00000   0.00000   3.12575  -0.40992  58.99048
      59 2002 12 21  0  3 41 725  3.8058    159.39427   1346.78271   1023.86719    -77.01019     71.36322      0.38945    177.9    149.5      6.3     -6.1    530.9     75.8    152.5    152.5 152.54010 152.54010   0.00000   0.00000   0.00000   0.00000   3.12547  -0.40992  58.97930
      60 2002 12 21  0  3 45 528  3.8032    159.43014   1347.49316   1024.05783    -75.74673     73.78557      0.62381    177.9    149.5      6.4     -6.1    531.0     76.0    152.5    152.5 152.54010 152.54010   0.00000   0.00000   0.00000   0.00000   3.12519  -0.40992  58.92902
      61 2002 12 21  0  3 49 329  3.8007    159.46335   1348.20369   1024.25043    -78.01308     74.20367      0.88310    177.9    149.5      6.4     -6.1    531.1     76.2    152.5    152.5 152.54010 152.54010   0.00000   0.00000   0.00000   0.00000   3.12492  -0.40992  58.91861
      62 2002 12 21  0  3 53 127  3.7983    159.49768   1348.91573   1024.44516    -78.42647     77.44412      1.16684    177.9    149.5      6.4     -6.1    531.2     76.4    152.5    152.5 152.54010 152.54010   0.00000   0.00000   0.00000   0.00000   3.12464  -0.40992  58.86868
      63 2002 12 21  0  3 56 923  3.7962    159.53451   1349.63088   1024.64213    -76.84004     80.97188      1.47424    177.9    149.5      6.4     -6.1    531.3     76.6    152.5    152.5 152.54010 152.54010   0.00000   0.00000   0.00000   0.00000   3.12436  -0.40992  58.85894
      64 2002 12 21  0  4  0 718  3.7945    159.57185   1350.35096   1024.84155    -76.71647     83.58387      1.80311    177.9    149.5      6.4     -6.0    531.4     76.7    152.5    152.5 152.54010 152.54010   0.00000   0.00000   0.00000   0.00000   3.12409  -0.40992  58.80947
      65 2002 12 21  0  4  4 511  3.7932    159.60640   1351.07211   1025.04326    -78.40428     83.97742      2.15023    177.9    149.5      6.3     -6.1    531.5     76.8    163.8    163.8 163.81403 163.81403   0.00000   0.00000   0.00000   0.00000   3.12381  -0.40992  58.80062
