GITM2 log file
## Inputs from UAM.in
# Resart= F
# Eddy coef:   100.000 Eddy P0:     0.010 Eddy P1:     0.005 Eddy Scaling:     1.000
# Statistical Models Only:  F Apex:  F
# EUV Data:  F
# AMIE: none           
none                                                                                                
# Solar Heating:  T Joule Heating:  F Auroral Heating:  F
# NO Cooling:  F O Cooling:  F
# Conduction:  T Turbulent Conduction:  F Updated Turbulent Conduction:  F
# Pressure Grad:  T Ion Drag:  F Neutral Drag:  T
# Viscosity:  T Coriolis:  T Gravity:  T
# Ion Chemistry:  F Ion Advection:  F Neutral Chemistry:  F
 
#START
   iStep yyyy mm dd hh mm ss  ms      dt min(T) max(T) mean(T) min(VV) max(VV) mean(VV) F107 F107A Bx By Bz Vx HPI
       2 2002 12 21 12  0  5 323  5.3235    166.50113    170.11988    167.96788     -6.00039     25.00000     -0.92259    150.0    150.0      0.0      0.0    -20.0    400.0      1.0
       3 2002 12 21 12  0 10 621  5.2980    166.42394    190.07255    168.18590    -10.91509     25.00000     -2.69134    150.0    150.0      0.0      0.0    -20.0    400.0      1.0
       4 2002 12 21 12  0 15 890  5.2688    166.31581    204.23764    168.32556    -15.60157     25.00000     -4.77640    150.0    150.0      0.0      0.0    -20.0    400.0      1.0
       5 2002 12 21 12  0 21 135  5.2451    166.17729    214.32608    168.41794    -20.65713     25.00000     -6.83886    150.0    150.0      0.0      0.0    -20.0    400.0      1.0
       6 2002 12 21 12  0 26 351  5.2164    166.00841    221.29390    168.48543    -25.00000     25.00000     -8.89102    150.0    150.0      0.0      0.0    -20.0    400.0      1.0
       7 2002 12 21 12  0 31 541  5.1901    165.80362    226.25461    168.52484    -25.00000     25.00000    -10.72117    150.0    150.0      0.0      0.0    -20.0    400.0      1.0
       8 2002 12 21 12  0 36 707  5.1653    165.56741    230.64646    168.54373    -25.00000     25.00000    -12.08503    150.0    150.0      0.0      0.0    -20.0    400.0      1.0
       9 2002 12 21 12  0 41 849  5.1418    165.30571    234.62256    168.54768    -25.00000     25.00000    -12.87344    150.0    150.0      0.0      0.0    -20.0    400.0      1.0
      10 2002 12 21 12  0 46 964  5.1157    165.08501    237.70032    168.54305    -25.00000     25.00000    -13.37724    150.0    150.0      0.0      0.0    -20.0    400.0      1.0
      11 2002 12 21 12  0 52  55  5.0908    164.86338    240.15294    168.53326    -25.00000     25.00000    -13.66699    150.0    150.0      0.0      0.0    -20.0    400.0      1.0
      12 2002 12 21 12  0 57 123  5.0683    164.64256    242.04982    168.52053    -25.00000     25.00000    -13.77700    150.0    150.0      0.0      0.0    -20.0    400.0      1.0
      13 2002 12 21 12  1  2 166  5.0424    164.42306    243.56266    168.50634    -25.00000     25.00000    -13.74488    150.0    150.0      0.0      0.0    -20.0    400.0      1.0
      14 2002 12 21 12  1  7 210  5.0442    164.20662    244.99146    168.49140    -25.00000     25.00000    -13.64448    150.0    150.0      0.0      0.0    -20.0    400.0      1.0
      15 2002 12 21 12  1 12 259  5.0491    163.99026    246.40190    168.47448    -25.00000     25.00000    -13.54425    150.0    150.0      0.0      0.0    -20.0    400.0      1.0
      16 2002 12 21 12  1 17 315  5.0559    163.77392    247.38780    168.45324    -25.00000     25.00000    -13.42102    150.0    150.0      0.0      0.0    -20.0    400.0      1.0
      17 2002 12 21 12  1 22 373  5.0584    163.55780    248.00339    168.42837    -25.00000     25.00000    -13.28258    150.0    150.0      0.0      0.0    -20.0    400.0      1.0
      18 2002 12 21 12  1 27 434  5.0610    163.34058    248.20690    168.40139    -25.00000     25.00000    -13.14139    150.0    150.0      0.0      0.0    -20.0    400.0      1.0
      19 2002 12 21 12  1 32 499  5.0647    162.74599    248.30442    168.37542    -25.00000     25.00000    -13.00591    150.0    150.0      0.0      0.0    -20.0    400.0      1.0
      20 2002 12 21 12  1 37 565  5.0660    162.17502    248.91611    168.35150    -25.00000     25.00000    -12.85480    150.0    150.0      0.0      0.0    -20.0    400.0      1.0
      21 2002 12 21 12  1 42 633  5.0678    161.75032    249.61924    168.32572    -25.00000     25.00000    -12.68416    150.0    150.0      0.0      0.0    -20.0    400.0      1.0
      22 2002 12 21 12  1 47 705  5.0726    161.46482    250.33177    168.29883    -25.00000     25.00000    -12.52553    150.0    150.0      0.0      0.0    -20.0    400.0      1.0
      23 2002 12 21 12  1 52 778  5.0731    161.21574    250.92654    168.27029    -25.00000     25.00000    -12.35863    150.0    150.0      0.0      0.0    -20.0    400.0      1.0
      24 2002 12 21 12  1 57 854  5.0755    160.88189    251.44256    168.23881    -25.00000     25.00000    -12.17466    150.0    150.0      0.0      0.0    -20.0    400.0      1.0
      25 2002 12 21 12  2  2 934  5.0802    160.57373    251.88574    168.20487    -25.00000     25.00000    -11.98887    150.0    150.0      0.0      0.0    -20.0    400.0      1.0
      26 2002 12 21 12  2  8  15  5.0809    160.17053    252.25182    168.17089    -25.00000     25.00000    -11.81115    150.0    150.0      0.0      0.0    -20.0    400.0      1.0
      27 2002 12 21 12  2 13  99  5.0834    159.75264    252.56635    168.13534    -25.00000     25.00000    -11.63289    150.0    150.0      0.0      0.0    -20.0    400.0      1.0
      28 2002 12 21 12  2 18 185  5.0869    159.36168    252.90516    168.09692    -25.00000     25.00000    -11.44183    150.0    150.0      0.0      0.0    -20.0    400.0      1.0
      29 2002 12 21 12  2 23 274  5.0889    158.99924    253.31537    168.05749    -25.00000     25.00000    -11.25026    150.0    150.0      0.0      0.0    -20.0    400.0      1.0
      30 2002 12 21 12  2 28 365  5.0905    158.73435    253.72331    168.01747    -25.00000     25.00000    -11.07108    150.0    150.0      0.0      0.0    -20.0    400.0      1.0
      31 2002 12 21 12  2 33 457  5.0924    158.55020    254.10627    167.97528    -25.00000     25.00000    -10.89500    150.0    150.0      0.0      0.0    -20.0    400.0      1.0
      32 2002 12 21 12  2 38 552  5.0945    158.45736    254.45416    167.93040    -25.00000     25.00000    -10.71265    150.0    150.0      0.0      0.0    -20.0    400.0      1.0
      33 2002 12 21 12  2 43 649  5.0976    158.37374    254.76313    167.88479    -25.00000     25.00000    -10.54695    150.0    150.0      0.0      0.0    -20.0    400.0      1.0
      34 2002 12 21 12  2 48 750  5.1010    158.25773    255.06364    167.83821    -25.00000     25.00000    -10.38736    150.0    150.0      0.0      0.0    -20.0    400.0      1.0
      35 2002 12 21 12  2 53 853  5.1024    158.11675    255.37374    167.78897    -25.00000     25.00000    -10.23222    150.0    150.0      0.0      0.0    -20.0    400.0      1.0
      36 2002 12 21 12  2 58 958  5.1049    157.93485    255.69667    167.73827    -25.00000     25.00000    -10.06553    150.0    150.0      0.0      0.0    -20.0    400.0      1.0
      37 2002 12 21 12  3  4  63  5.1053    157.77834    256.03432    167.68701    -25.00000     25.00000     -9.90826    150.0    150.0      0.0      0.0    -20.0    400.0      1.0
      38 2002 12 21 12  3  9 171  5.1077    157.56289    256.36103    167.63416    -25.00000     25.00000     -9.76589    150.0    150.0      0.0      0.0    -20.0    400.0      1.0
      39 2002 12 21 12  3 14 281  5.1105    157.32439    256.65373    167.57800    -25.00000     25.00000     -9.60758    150.0    150.0      0.0      0.0    -20.0    400.0      1.0
      40 2002 12 21 12  3 19 394  5.1125    157.06258    256.88940    167.52049    -25.00000     25.00000     -9.46343    150.0    150.0      0.0      0.0    -20.0    400.0      1.0
      41 2002 12 21 12  3 24 512  5.1183    156.79504    257.07830    167.46199    -25.00000     25.00000     -9.32272    150.0    150.0      0.0      0.0    -20.0    400.0      1.0
      42 2002 12 21 12  3 29 632  5.1202    156.54685    257.25574    167.40078    -25.00000     25.00000     -9.18884    150.0    150.0      0.0      0.0    -20.0    400.0      1.0
      43 2002 12 21 12  3 34 755  5.1230    156.39230    257.44105    167.33735    -25.00000     25.00000     -9.05383    150.0    150.0      0.0      0.0    -20.0    400.0      1.0
      44 2002 12 21 12  3 39 882  5.1269    156.35527    257.63619    167.27362    -25.00000     25.00000     -8.92606    150.0    150.0      0.0      0.0    -20.0    400.0      1.0
      45 2002 12 21 12  3 45  13  5.1308    156.27933    257.83651    167.20808    -25.00000     25.00000     -8.80765    150.0    150.0      0.0      0.0    -20.0    400.0      1.0
      46 2002 12 21 12  3 50 146  5.1333    156.16928    258.03825    167.13940    -25.00000     25.00000     -8.68363    150.0    150.0      0.0      0.0    -20.0    400.0      1.0
      47 2002 12 21 12  3 55 282  5.1357    156.03223    258.24206    167.06935    -25.00000     25.00000     -8.56410    150.0    150.0      0.0      0.0    -20.0    400.0      1.0
      48 2002 12 21 12  4  0 418  5.1359    155.82829    258.44453    166.99858    -25.00000     25.00000     -8.45502    150.0    150.0      0.0      0.0    -20.0    400.0      1.0
      49 2002 12 21 12  4  5 556  5.1387    155.58732    258.63767    166.92586    -25.00000     25.00000     -8.34893    150.0    150.0      0.0      0.0    -20.0    400.0      1.0
      50 2002 12 21 12  4 10 696  5.1391    155.32649    258.80985    166.85046    -25.00000     25.00000     -8.23952    150.0    150.0      0.0      0.0    -20.0    400.0      1.0
      51 2002 12 21 12  4 15 836  5.1409    155.07147    258.96111    166.77500    -25.00000     25.00000     -8.13761    150.0    150.0      0.0      0.0    -20.0    400.0      1.0
      52 2002 12 21 12  4 20 981  5.1443    154.88364    259.10392    166.69818    -25.00000     25.00000     -8.02855    150.0    150.0      0.0      0.0    -20.0    400.0      1.0
      53 2002 12 21 12  4 26 127  5.1461    154.76060    259.25452    166.61862    -25.00000     25.00000     -7.93324    150.0    150.0      0.0      0.0    -20.0    400.0      1.0
      54 2002 12 21 12  4 31 276  5.1495    154.65617    259.41622    166.53778    -25.00000     25.00000     -7.84029    150.0    150.0      0.0      0.0    -20.0    400.0      1.0
      55 2002 12 21 12  4 36 423  5.1464    154.47821    259.57969    166.45652    -25.00000     25.00000     -7.74433    150.0    150.0      0.0      0.0    -20.0    400.0      1.0
      56 2002 12 21 12  4 41 570  5.1477    154.24893    259.73656    166.37356    -25.00000     25.00000     -7.66498    150.0    150.0      0.0      0.0    -20.0    400.0      1.0
      57 2002 12 21 12  4 46 717  5.1471    154.08260    259.88340    166.28805    -25.00000     25.00000     -7.58292    150.0    150.0      0.0      0.0    -20.0    400.0      1.0
      58 2002 12 21 12  4 51 868  5.1510    153.76744    260.02188    166.20223    -25.00000     25.00000     -7.49216    150.0    150.0      0.0      0.0    -20.0    400.0      1.0
      59 2002 12 21 12  4 57  21  5.1522    153.46155    260.15702    166.11494    -25.00000     25.00000     -7.41148    150.0    150.0      0.0      0.0    -20.0    400.0      1.0
      60 2002 12 21 12  5  2 177  5.1561    153.17748    260.29270    166.02512    -25.00000     25.00000     -7.33149    150.0    150.0      0.0      0.0    -20.0    400.0      1.0
      61 2002 12 21 12  5  7 334  5.1575    152.91613    260.42854    165.93435    -25.00000     25.00000     -7.23959    150.0    150.0      0.0      0.0    -20.0    400.0      1.0
      62 2002 12 21 12  5 12 493  5.1586    152.74353    260.55868    165.84381    -25.00000     25.00000     -7.13529    150.0    150.0      0.0      0.0    -20.0    400.0      1.0
      63 2002 12 21 12  5 17 654  5.1615    152.66830    260.68082    165.75112    -25.00000     25.00000     -7.01783    150.0    150.0      0.0      0.0    -20.0    400.0      1.0
      64 2002 12 21 12  5 22 816  5.1612    152.67382    260.79469    165.65460    -25.00000     25.00000     -6.94247    150.0    150.0      0.0      0.0    -20.0    400.0      1.0
      65 2002 12 21 12  5 27 980  5.1641    152.53987    260.90205    165.55828    -25.00000     25.00000     -6.82527    150.0    150.0      0.0      0.0    -20.0    400.0      1.0
      66 2002 12 21 12  5 33 146  5.1660    152.38986    261.00004    165.46022    -25.00000     25.00000     -6.72756    150.0    150.0      0.0      0.0    -20.0    400.0      1.0
      67 2002 12 21 12  5 38 314  5.1677    152.33033    261.09170    165.35928    -25.00000     25.00000     -6.62950    150.0    150.0      0.0      0.0    -20.0    400.0      1.0
      68 2002 12 21 12  5 43 481  5.1678    152.26533    261.18252    165.25538    -25.00000     25.00000     -6.51321    150.0    150.0      0.0      0.0    -20.0    400.0      1.0
      69 2002 12 21 12  5 48 650  5.1689    151.77892    261.27863    165.14995    -25.00000     25.00000     -6.44276    150.0    150.0      0.0      0.0    -20.0    400.0      1.0
      70 2002 12 21 12  5 53 817  5.1672    151.62546    261.37951    165.04329    -25.00000     25.00000     -6.33663    150.0    150.0      0.0      0.0    -20.0    400.0      1.0
      71 2002 12 21 12  5 58 988  5.1703    150.72290    261.48211    164.93267    -25.00000     25.00000     -6.26894    150.0    150.0      0.0      0.0    -20.0    400.0      1.0
      72 2002 12 21 12  6  4 159  5.1709    150.59311    261.58128    164.82201    -25.00000     25.00000     -6.18196    150.0    150.0      0.0      0.0    -20.0    400.0      1.0
      73 2002 12 21 12  6  9 331  5.1728    150.11831    261.67334    164.71115    -25.00000     25.00000     -6.11772    150.0    150.0      0.0      0.0    -20.0    400.0      1.0
      74 2002 12 21 12  6 14 504  5.1726    149.96803    261.75296    164.59770    -25.00000     25.00000     -6.06981    150.0    150.0      0.0      0.0    -20.0    400.0      1.0
      75 2002 12 21 12  6 19 677  5.1732    149.76232    261.82301    164.48259    -25.00000     25.00000     -5.99440    150.0    150.0      0.0      0.0    -20.0    400.0      1.0
      76 2002 12 21 12  6 24 853  5.1756    149.37833    261.88448    164.36786    -25.00000     25.00000     -5.98092    150.0    150.0      0.0      0.0    -20.0    400.0      1.0
      77 2002 12 21 12  6 30  28  5.1753    149.43309    261.94267    164.25333    -25.00000     25.00000     -5.92169    150.0    150.0      0.0      0.0    -20.0    400.0      1.0
      78 2002 12 21 12  6 35 204  5.1763    148.94339    262.00053    164.13608    -25.00000     25.00000     -5.92202    150.0    150.0      0.0      0.0    -20.0    400.0      1.0
      79 2002 12 21 12  6 40 383  5.1789    148.83802    262.06335    164.01946    -25.00000     25.00000     -5.89701    150.0    150.0      0.0      0.0    -20.0    400.0      1.0
      80 2002 12 21 12  6 45 564  5.1804    148.31811    262.11869    163.90177    -25.00000     25.00000     -5.88131    150.0    150.0      0.0      0.0    -20.0    400.0      1.0
      81 2002 12 21 12  6 50 745  5.1811    147.93622    262.16928    163.78241    -25.00000     25.00000     -5.88560    150.0    150.0      0.0      0.0    -20.0    400.0      1.0
      82 2002 12 21 12  6 55 926  5.1815    147.66698    262.21752    163.66300    -25.00000     25.00000     -5.87862    150.0    150.0      0.0      0.0    -20.0    400.0      1.0
      83 2002 12 21 12  7  1 109  5.1829    147.17708    262.26378    163.54354    -25.00000     25.00000     -5.90225    150.0    150.0      0.0      0.0    -20.0    400.0      1.0
      84 2002 12 21 12  7  6 293  5.1842    147.08747    262.30807    163.42467    -25.00000     25.00000     -5.89384    150.0    150.0      0.0      0.0    -20.0    400.0      1.0
      85 2002 12 21 12  7 11 479  5.1861    146.94962    262.35112    163.30480    -25.00000     25.00000     -5.90318    150.0    150.0      0.0      0.0    -20.0    400.0      1.0
      86 2002 12 21 12  7 16 668  5.1884    146.85841    262.39480    163.18497    -25.00000     25.00000     -5.90761    150.0    150.0      0.0      0.0    -20.0    400.0      1.0
      87 2002 12 21 12  7 21 855  5.1874    146.89410    262.44144    163.06604    -25.00000     25.00000     -5.92796    150.0    150.0      0.0      0.0    -20.0    400.0      1.0
      88 2002 12 21 12  7 27  44  5.1883    147.05946    262.49002    162.94859    -25.00000     25.00000     -5.95065    150.0    150.0      0.0      0.0    -20.0    400.0      1.0
      89 2002 12 21 12  7 32 233  5.1894    146.39207    262.53803    162.83071    -25.00000     25.00000     -5.96710    150.0    150.0      0.0      0.0    -20.0    400.0      1.0
      90 2002 12 21 12  7 37 423  5.1900    146.02262    262.58513    162.71270    -25.00000     25.00000     -6.00939    150.0    150.0      0.0      0.0    -20.0    400.0      1.0
      91 2002 12 21 12  7 42 617  5.1945    145.96700    262.62206    162.59588    -25.00000     25.00000     -6.03831    150.0    150.0      0.0      0.0    -20.0    400.0      1.0
      92 2002 12 21 12  7 47 812  5.1950    145.50420    262.64885    162.47799    -25.00000     25.00000     -6.05968    150.0    150.0      0.0      0.0    -20.0    400.0      1.0
      93 2002 12 21 12  7 53   8  5.1951    145.34527    262.66957    162.36121    -25.00000     25.00000     -6.10628    150.0    150.0      0.0      0.0    -20.0    400.0      1.0
      94 2002 12 21 12  7 58 203  5.1950    145.44538    262.68998    162.24728    -25.00000     25.00000     -6.15666    150.0    150.0      0.0      0.0    -20.0    400.0      1.0
      95 2002 12 21 12  8  3 398  5.1952    145.10876    262.71115    162.13273    -25.00000     25.00000     -6.20611    150.0    150.0      0.0      0.0    -20.0    400.0      1.0
      96 2002 12 21 12  8  8 596  5.1982    145.14009    262.73305    162.01857    -25.00000     25.00000     -6.25366    150.0    150.0      0.0      0.0    -20.0    400.0      1.0
      97 2002 12 21 12  8 13 795  5.1988    145.04837    262.75598    161.90593    -25.00000     25.00000     -6.32309    150.0    150.0      0.0      0.0    -20.0    400.0      1.0
      98 2002 12 21 12  8 18 994  5.1995    144.68637    262.78054    161.79540    -25.00000     25.00000     -6.39100    150.0    150.0      0.0      0.0    -20.0    400.0      1.0
      99 2002 12 21 12  8 24 194  5.2000    144.41337    262.80935    161.68638    -25.00000     25.00000     -6.46024    150.0    150.0      0.0      0.0    -20.0    400.0      1.0
     100 2002 12 21 12  8 29 395  5.2008    144.13899    262.84021    161.57744    -25.00000     25.00000     -6.54210    150.0    150.0      0.0      0.0    -20.0    400.0      1.0
     101 2002 12 21 12  8 34 600  5.2046    143.77293    262.86632    161.46887    -25.00000     25.00000     -6.64821    150.0    150.0      0.0      0.0    -20.0    400.0      1.0
     102 2002 12 21 12  8 39 805  5.2053    143.58847    262.88732    161.36098    -25.00000     25.00000     -6.75256    150.0    150.0      0.0      0.0    -20.0    400.0      1.0
     103 2002 12 21 12  8 45   8  5.2035    143.34555    262.90235    161.25256    -25.00000     25.00000     -6.85039    150.0    150.0      0.0      0.0    -20.0    400.0      1.0
     104 2002 12 21 12  8 50 214  5.2054    143.06492    262.91174    161.14546    -25.00000     25.00000     -6.95377    150.0    150.0      0.0      0.0    -20.0    400.0      1.0
     105 2002 12 21 12  8 55 417  5.2033    142.81108    262.91645    161.04214    -25.00000     25.00000     -7.07421    150.0    150.0      0.0      0.0    -20.0    400.0      1.0
     106 2002 12 21 12  9  0 623  5.2056    142.47696    262.91445    160.93834    -25.00000     25.00000     -7.20025    150.0    150.0      0.0      0.0    -20.0    400.0      1.0
